Wavelength(nm)	Intensity
772.673	58.62
772.721	-12.38
772.77	2.52
772.819	2.62
772.867	110.22
772.916	110.12
772.965	144.82
773.013	165.22
773.062	139.52
773.111	151.22
773.159	141.62
773.208	139.52
773.256	161.92
773.305	160.72
773.354	220.52
773.402	251.52
773.451	334.62
773.499	463.52
773.548	528.92
773.596	673.22
773.645	770.12
773.693	890.92
773.742	980.02
773.79	1017.42
773.839	1085.52
773.887	1067.32
773.936	1114.42
773.984	1125.02
774.033	1140.22
774.081	1172.82
774.129	1195.62
774.178	1199.92
774.226	1258.22
774.275	1218.72
774.323	1293.32
774.371	1223.12
774.42	1193.72
774.468	1196.02
774.516	1155.22
774.565	1191.12
774.613	1171.12
774.661	1183.22
774.71	1178.72
774.758	1174.82
774.806	1224.92
774.854	1207.12
774.903	1219.32
774.951	1219.12
774.999	1222.62
775.047	1184.82
775.095	1207.52
775.144	1167.12
775.192	1169.02
775.24	1193.12
775.288	1209.22
775.336	1241.22
775.385	1238.82
775.433	1256.62
775.481	1340.32
775.529	1314.22
775.577	1313.42
775.625	1242.02
775.673	1278.72
775.721	1265.32
775.769	1222.02
775.817	1222.02
775.866	1218.22
775.914	1223.82
775.962	1279.32
776.01	1235.02
776.058	1322.82
776.106	1353.02
776.154	1384.12
776.202	1341.62
776.25	1349.82
776.298	1347.52
776.345	1278.72
776.393	1287.52
776.441	1207.52
776.489	1254.32
776.537	1240.32
776.585	1237.72
776.633	1257.72
776.681	1343.52
776.729	1372.52
776.777	1372.42
776.824	1402.92
776.872	1335.62
776.92	1342.12
776.968	1314.72
777.016	1212.32
777.064	1228.72
777.111	1192.82
777.159	1188.02
777.207	1207.32
777.255	1234.42
777.302	1223.22
777.35	1225.82
777.398	1237.02
777.446	1229.82
777.493	1229.92
777.541	1207.22
777.589	1192.82
777.636	1201.12
777.684	1149.42
777.732	1163.72
777.779	1139.12
777.827	1179.92
777.875	1213.72
777.922	1172.42
777.97	1192.92
778.018	1226.22
778.065	1257.02
778.113	1236.72
778.16	1281.32
778.208	1279.32
778.255	1323.52
778.303	1332.22
778.351	1375.52
778.398	1391.32
778.446	1385.02
778.493	1370.02
778.541	1375.12
778.588	1351.42
778.636	1372.62
778.683	1374.82
778.731	1406.02
778.778	1475.82
778.825	1518.42
778.873	1531.02
778.92	1563.32
778.968	1704.92
779.015	1705.82
779.062	1766.22
779.11	1796.32
779.157	1782.42
779.205	1782.72
779.252	1817.32
779.299	1817.22
779.347	1873.02
779.394	1927.82
779.441	2011.82
779.488	2088.32
779.536	2149.92
779.583	2275.02
779.63	2253.32
779.678	2296.32
779.725	2332.12
779.772	2374.22
779.819	2456.22
779.867	2433.92
779.914	2591.02
779.961	2587.02
780.008	2725.82
780.055	2834.32
780.102	3007.52
780.15	3136.32
780.197	3178.32
780.244	3187.82
780.291	3090.42
780.338	2988.32
780.385	2906.62
780.432	2729.62
780.479	2726.62
780.527	2802.92
780.574	2909.22
780.621	3037.22
780.668	3280.82
780.715	3553.02
780.762	3765.22
780.809	3915.42
780.856	4020.22
780.903	4125.82
780.95	4197.32
780.997	4167.32
781.044	4217.12
781.091	4194.72
781.138	4291.52
781.185	4309.32
781.232	4417.32
781.278	4546.42
781.325	4684.92
781.372	4789.72
781.419	4815.02
781.466	4836.22
781.513	4864.12
781.56	4852.02
781.607	4888.42
781.654	4901.92
781.7	5152.52
781.747	5325.72
781.794	5743.52
781.841	5930.02
781.888	6206.52
781.934	6314.92
781.981	6344.12
782.028	6227.12
782.075	5778.62
782.121	5357.72
782.168	4928.92
782.215	4731.52
782.262	4639.32
782.308	4921.32
782.355	5442.32
782.402	6241.72
782.448	7234.02
782.495	8280.62
782.542	9111.92
782.588	9662.72
782.635	9842.42
782.682	9546.32
782.728	8917.72
782.775	7799.52
782.821	6734.02
782.868	5804.52
782.915	5186.92
782.961	4904.42
783.008	5186.92
783.054	6108.52
783.101	7262.72
783.147	8641.22
783.194	9833.82
783.24	10811.92
783.287	11266.62
783.333	11116.32
783.38	10427.52
783.426	9244.82
783.473	7942.02
783.519	6784.32
783.566	5932.52
783.612	5669.82
783.658	5827.82
783.705	6799.52
783.751	8185.12
783.798	9523.52
783.844	11043.72
783.89	12063.82
783.937	12466.22
783.983	12118.52
784.029	11149.92
784.076	10008.62
784.122	8616.32
784.168	7304.32
784.215	6460.72
784.261	6367.72
784.307	6954.52
784.353	8278.32
784.4	9854.02
784.446	11431.52
784.492	12818.32
784.538	13797.02
784.585	13975.52
784.631	13400.42
784.677	12293.52
784.723	10652.22
784.769	9297.42
784.816	7948.32
784.862	7415.12
784.908	7407.62
784.954	8278.22
785	9835.52
785.046	11513.12
785.092	13147.52
785.138	14445.72
785.185	15169.12
785.231	14983.62
785.277	14114.02
785.323	12652.62
785.369	10930.72
785.415	9373.22
785.461	8130.32
785.507	7780.92
785.553	8188.82
785.599	9424.82
785.645	11050.32
785.691	12770.32
785.737	14183.62
785.783	15245.92
785.829	15479.82
785.875	14970.52
785.921	13590.82
785.967	11921.82
786.012	10270.62
786.058	8823.32
786.104	8036.72
786.15	8254.02
786.196	9220.42
786.242	10561.32
786.288	12654.72
786.334	14384.52
786.379	15733.12
786.425	16359.32
786.471	16135.12
786.517	14878.32
786.563	13395.12
786.608	11581.22
786.654	9940.52
786.7	8910.92
786.746	8792.82
786.791	9418.32
786.837	10861.62
786.883	12785.82
786.929	14803.32
786.974	16396.52
787.02	17431.12
787.066	17749.02
787.111	16914.72
787.157	15474.92
787.203	13537.12
787.248	11650.62
787.294	10196.82
787.34	9405.42
787.385	9670.42
787.431	10731.52
787.476	12441.42
787.522	14488.02
787.567	16269.52
787.613	17810.62
787.659	18302.82
787.704	17805.52
787.75	16720.12
787.795	14891.72
787.841	12967.52
787.886	10996.72
787.932	9990.62
787.977	9731.82
788.023	10376.52
788.068	11723.72
788.114	13615.32
788.159	15466.82
788.204	17169.02
788.25	17915.52
788.295	17916.12
788.341	16988.32
788.386	15491.02
788.432	13547.72
788.477	11754.02
788.522	10492.22
788.568	9850.52
788.613	10274.82
788.658	11502.32
788.704	13454.12
788.749	15473.52
788.794	16964.72
788.84	18209.52
788.885	18700.42
788.93	18182.42
788.975	16694.52
789.021	14838.22
789.066	13131.72
789.111	11373.92
789.156	10642.92
789.202	10611.02
789.247	11661.02
789.292	13230.92
789.337	15368.92
789.382	17465.12
789.427	18889.22
789.473	19471.22
789.518	19218.62
789.563	18099.22
789.608	16451.42
789.653	14333.82
789.698	12759.72
789.743	11300.82
789.788	11067.22
789.834	11688.42
789.879	13028.52
789.924	14770.02
789.969	16826.42
790.014	18473.32
790.059	19374.72
790.104	19382.42
790.149	18560.22
790.194	17009.62
790.239	15015.22
790.284	13066.32
790.329	11784.42
790.374	11043.82
790.419	11390.62
790.464	12429.42
790.508	13994.62
790.553	15828.32
790.598	17570.02
790.643	18703.02
790.688	19121.22
790.733	18503.02
790.778	17189.42
790.823	15484.92
790.868	13588.52
790.912	12260.92
790.957	11271.72
791.002	11410.02
791.047	12334.42
791.092	13856.92
791.136	15616.12
791.181	17428.32
791.226	18846.02
791.271	19280.62
791.316	19108.42
791.36	18009.52
791.405	16442.62
791.45	14668.92
791.494	13073.52
791.539	11931.02
791.584	11745.32
791.628	12443.32
791.673	13844.92
791.718	15642.72
791.762	17582.32
791.807	19081.62
791.852	19871.62
791.896	19832.92
791.941	18902.92
791.986	17328.62
792.03	15531.02
792.075	13743.82
792.119	12538.52
792.164	11994.32
792.208	12393.22
792.253	13504.02
792.298	15194.72
792.342	17116.62
792.387	18611.02
792.431	19724.42
792.476	19796.72
792.52	19001.32
792.565	17749.92
792.609	16078.72
792.653	14268.72
792.698	12777.62
792.742	12191.42
792.787	12127.82
792.831	13208.52
792.876	14730.82
792.92	16661.52
792.964	18126.22
793.009	19450.02
793.053	19819.52
793.097	19340.42
793.142	18005.02
793.186	16319.82
793.23	14604.52
793.275	13443.12
793.319	12356.22
793.363	12311.62
793.408	13103.42
793.452	14537.82
793.496	16448.32
793.54	17995.52
793.585	19305.72
793.629	19850.32
793.673	19753.42
793.717	18679.92
793.762	17211.02
793.806	15435.02
793.85	13814.22
793.894	12924.32
793.938	12610.82
793.982	13284.82
794.027	14434.62
794.071	16114.32
794.115	17749.82
794.159	19134.82
794.203	20014.52
794.247	19960.02
794.291	19072.32
794.335	17731.12
794.379	15941.22
794.423	14372.22
794.467	12987.52
794.511	12725.12
794.556	12991.92
794.6	14063.92
794.644	15603.12
794.688	17227.12
794.732	18651.82
794.775	19699.62
794.819	19810.42
794.863	19244.52
794.907	18010.72
794.951	16355.42
794.995	14702.42
795.039	13356.82
795.083	12696.52
795.127	12852.02
795.171	13895.82
795.215	15280.62
795.259	17083.12
795.302	18782.42
795.346	19739.72
795.39	20253.22
795.434	19793.22
795.478	18684.02
795.522	17130.52
795.565	15405.22
795.609	14063.52
795.653	13327.82
795.697	13115.02
795.74	13823.12
795.784	15085.02
795.828	16792.62
795.872	18605.02
795.915	19795.02
795.959	20666.02
796.003	20639.42
796.047	19608.72
796.09	18138.42
796.134	16389.92
796.178	14744.52
796.221	13675.82
796.265	13175.62
796.308	13477.72
796.352	14650.92
796.396	16215.82
796.439	17811.52
796.483	19179.82
796.526	20245.42
796.57	20085.12
796.614	19538.92
796.657	18334.42
796.701	16628.22
796.744	14936.12
796.788	13714.82
796.831	13082.82
796.875	13067.52
796.918	13832.52
796.962	15210.22
797.005	16796.82
797.049	18410.22
797.092	19309.62
797.136	19813.62
797.179	19418.32
797.222	18587.82
797.266	17006.92
797.309	15300.92
797.353	14069.92
797.396	13039.62
797.439	12930.92
797.483	13455.12
797.526	14675.12
797.569	16310.42
797.613	17998.12
797.656	19468.42
797.699	20162.52
797.743	19969.72
797.786	19241.72
797.829	18045.02
797.873	16476.02
797.916	14827.52
797.959	13716.22
798.002	13236.42
798.045	13453.42
798.089	14512.82
798.132	16116.32
798.175	17752.62
798.218	19387.42
798.262	20591.32
798.305	20838.02
798.348	20530.82
798.391	19252.92
798.434	17908.92
798.477	16282.82
798.52	14733.12
798.564	13800.12
798.607	13522.72
798.65	14183.62
798.693	15393.92
798.736	17068.62
798.779	18611.92
798.822	19854.12
798.865	20726.42
798.908	20589.52
798.951	20091.92
798.994	18622.82
799.037	16883.32
799.08	15310.02
799.123	14088.92
799.166	13183.42
799.209	13272.62
799.252	13903.52
799.295	15498.52
799.338	17074.62
799.381	18813.02
799.424	19820.22
799.467	20338.02
799.51	20051.82
799.552	19070.22
799.595	17625.02
799.638	15929.22
799.681	14492.82
799.724	13457.92
799.767	12977.42
799.81	13716.42
799.852	14616.22
799.895	16155.72
799.938	17983.52
799.981	19309.22
800.024	20173.72
800.066	20327.02
800.109	19793.52
800.152	18431.82
800.195	16945.62
800.237	15379.42
800.28	14096.82
800.323	13400.82
800.365	13146.12
800.408	14234.62
800.451	15428.22
800.493	17076.02
800.536	18797.52
800.579	20169.72
800.621	20775.92
800.664	20876.12
800.707	20020.12
800.749	18596.32
800.792	16898.82
800.834	15258.42
800.877	13991.42
800.92	13384.12
800.962	13699.32
801.005	14514.12
801.047	15915.72
801.09	17628.82
801.132	19316.92
801.175	20483.62
801.217	21008.72
801.26	20587.92
801.302	19584.92
801.345	18215.32
801.387	16547.72
801.43	14776.62
801.472	13667.42
801.514	13207.12
801.557	13646.12
801.599	14675.12
801.642	16283.52
801.684	17887.72
801.726	19451.42
801.769	20520.62
801.811	21009.22
801.854	20356.42
801.896	19313.02
801.938	17620.32
801.981	15979.72
802.023	14464.22
802.065	13428.62
802.107	13225.62
802.15	13780.82
802.192	15097.22
802.234	16751.42
802.276	18710.32
802.319	20130.32
802.361	21217.72
802.403	21424.22
802.445	20623.92
802.488	19552.32
802.53	17764.62
802.572	15952.22
802.614	14528.32
802.656	13770.52
802.698	13513.92
802.741	14279.82
802.783	15573.12
802.825	17277.22
802.867	19140.22
802.909	20568.62
802.951	21614.32
802.993	21638.82
803.035	20871.72
803.077	19617.52
803.119	17739.82
803.161	16068.22
803.204	14414.12
803.246	13500.02
803.288	13469.12
803.33	14199.52
803.372	15476.32
803.414	17241.42
803.456	19066.62
803.497	20381.92
803.539	21408.72
803.581	21206.62
803.623	20433.72
803.665	19100.72
803.707	17334.02
803.749	15454.52
803.791	13995.42
803.833	13101.52
803.875	13075.82
803.917	13819.12
803.958	15122.12
804	16913.42
804.042	18659.62
804.084	20003.12
804.126	20890.72
804.168	20723.82
804.209	20077.22
804.251	18683.32
804.293	16769.82
804.335	15159.82
804.376	13817.22
804.418	13144.32
804.46	12964.62
804.502	13889.62
804.543	15320.42
804.585	17257.72
804.627	18995.42
804.668	20566.62
804.71	21370.02
804.752	21499.22
804.793	20758.62
804.835	19140.72
804.877	17280.72
804.918	15551.12
804.96	13857.22
805.002	13248.62
805.043	13245.42
805.085	14229.52
805.126	15570.82
805.168	17721.82
805.209	19593.22
805.251	21289.42
805.293	22230.12
805.334	22252.12
805.376	21290.92
805.417	19814.62
805.459	17965.22
805.5	16015.92
805.542	14401.82
805.583	13467.12
805.624	13367.22
805.666	14056.82
805.707	15575.02
805.749	17425.22
805.79	19315.92
805.832	21067.82
805.873	21865.12
805.914	22211.82
805.956	21578.42
805.997	20082.32
806.039	18032.82
806.08	16060.92
806.121	14354.62
806.163	13228.92
806.204	12903.12
806.245	13639.92
806.286	14885.32
806.328	16632.12
806.369	18473.52
806.41	20228.32
806.452	21334.72
806.493	21727.42
806.534	20955.82
806.575	19780.12
806.616	17896.32
806.658	15874.92
806.699	14194.02
806.74	12991.82
806.781	12571.42
806.822	13127.82
806.864	14287.92
806.905	16078.62
806.946	18325.02
806.987	20051.82
807.028	21144.42
807.069	21608.12
807.11	20883.12
807.151	19930.32
807.193	18160.72
807.234	16116.12
807.275	14088.02
807.316	12861.02
807.357	12337.32
807.398	12702.52
807.439	13827.72
807.48	15631.52
807.521	17661.12
807.562	19578.72
807.603	20852.42
807.644	21514.72
807.685	21246.32
807.726	20221.02
807.767	18568.72
807.808	16251.02
807.848	14532.92
807.889	12987.02
807.93	12254.92
807.971	12294.72
808.012	13168.92
808.053	14831.42
808.094	16754.32
808.135	18774.92
808.176	20267.72
808.216	21172.32
808.257	21213.12
808.298	20378.02
808.339	18720.82
808.38	16686.12
808.42	14789.72
808.461	12915.82
808.502	11951.92
808.543	11584.22
808.583	12317.52
808.624	13709.32
808.665	15466.92
808.706	17566.92
808.746	19098.12
808.787	20416.12
808.828	20649.02
808.868	19973.42
808.909	18900.32
808.95	17065.22
808.99	14901.02
809.031	13147.62
809.072	11852.32
809.112	11298.42
809.153	11627.72
809.193	12980.32
809.234	14707.22
809.275	16716.12
809.315	18573.32
809.356	19997.12
809.396	20539.82
809.437	20320.92
809.477	19292.22
809.518	17681.32
809.558	15654.12
809.599	13643.82
809.639	11993.12
809.68	11226.22
809.72	11238.02
809.761	12078.42
809.801	13617.32
809.842	15634.22
809.882	17347.12
809.922	19054.72
809.963	19965.42
810.003	20219.12
810.044	19567.82
810.084	18123.72
810.124	16269.52
810.165	14359.42
810.205	12551.12
810.245	11192.82
810.286	10744.32
810.326	11166.92
810.366	12392.02
810.407	14026.32
810.447	15974.42
810.487	17785.22
810.527	19025.02
810.568	19728.62
810.608	19391.72
810.648	18474.12
810.688	16632.22
810.729	14804.92
810.769	12795.42
810.809	11359.92
810.849	10159.42
810.889	10054.72
810.93	10734.12
810.97	12118.02
811.01	13738.52
811.05	15707.92
811.09	17117.92
811.13	18158.02
811.17	18336.32
811.211	17798.12
811.251	16506.12
811.291	14914.62
811.331	12909.62
811.371	11195.92
811.411	9918.82
811.451	9379.12
811.491	9567.82
811.531	10553.32
811.571	12108.02
811.611	13914.32
811.651	15577.12
811.691	16711.52
811.731	17406.42
811.771	17327.42
811.811	16602.92
811.851	15136.92
811.891	13470.32
811.931	11634.42
811.971	10192.42
812.01	9190.12
812.05	9036.02
812.09	9675.32
812.13	10792.52
812.17	12595.82
812.21	14318.82
812.25	15848.82
812.289	16862.12
812.329	17200.62
812.369	17087.82
812.409	15950.22
812.449	14242.12
812.488	12575.32
812.528	10969.52
812.568	9650.62
812.608	8827.62
812.647	8805.42
812.687	9619.02
812.727	10972.42
812.767	12566.32
812.806	14065.42
812.846	15578.12
812.886	16537.32
812.925	16634.02
812.965	16197.12
813.005	15103.62
813.044	13530.82
813.084	11756.52
813.124	10160.02
813.163	8957.92
813.203	8267.12
813.242	8411.62
813.282	9117.02
813.322	10337.22
813.361	11830.32
813.401	13246.02
813.44	14626.32
813.48	15182.12
813.519	15309.12
813.559	14665.32
813.598	13446.02
813.638	12204.22
813.677	10578.62
813.717	9057.52
813.756	8070.42
813.796	7621.82
813.835	7785.82
813.875	8525.42
813.914	9517.02
813.953	10944.92
813.993	12063.02
814.032	13023.32
814.072	13672.52
814.111	13450.52
814.15	12988.92
814.19	11939.72
814.229	10622.52
814.268	9254.72
814.308	8114.32
814.347	7303.52
814.386	7030.72
814.426	7460.02
814.465	8085.32
814.504	9159.22
814.543	10277.82
814.583	11318.52
814.622	12137.72
814.661	12317.52
814.7	12139.62
814.74	11456.22
814.779	10511.92
814.818	9188.92
814.857	8057.12
814.896	7095.52
814.936	6585.52
814.975	6551.92
815.014	6997.72
815.053	7623.32
815.092	8675.22
815.131	9912.32
815.17	10852.82
815.209	11347.42
815.249	11523.62
815.288	11345.62
815.327	10563.92
815.366	9592.82
815.405	8459.32
815.444	7216.52
815.483	6495.52
815.522	5982.72
815.561	5910.12
815.6	6309.02
815.639	7019.32
815.678	8010.82
815.717	8964.82
815.756	9934.22
815.795	10279.72
815.834	10628.22
815.873	10278.42
815.912	9524.12
815.95	8705.62
815.989	7494.52
816.028	6513.12
816.067	5662.82
816.106	5211.62
816.145	5173.72
816.184	5523.02
816.223	6163.42
816.261	6968.72
816.3	7926.22
816.339	8522.92
816.378	9059.22
816.417	9239.72
816.455	8893.02
816.494	8256.72
816.533	7561.62
816.572	6498.72
816.61	5592.72
816.649	4870.12
816.688	4506.92
816.727	4466.62
816.765	4760.22
816.804	5412.12
816.843	6147.12
816.881	6850.52
816.92	7526.12
816.959	7922.32
816.997	8130.42
817.036	7853.12
817.075	7207.02
817.113	6577.62
817.152	5743.92
817.19	5021.02
817.229	4366.62
817.267	4042.02
817.306	3972.22
817.345	4246.72
817.383	4810.52
817.422	5459.92
817.46	6286.82
817.499	6931.22
817.537	7247.02
817.576	7302.82
817.614	7209.02
817.653	6690.42
817.691	6113.52
817.73	5309.52
817.768	4615.52
817.806	4044.62
817.845	3671.22
817.883	3576.82
817.922	3823.12
817.96	4140.42
817.998	4852.42
818.037	5385.32
818.075	6087.12
818.114	6334.12
818.152	6561.12
818.19	6460.22
818.229	6097.12
818.267	5643.72
818.305	4888.32
818.343	4192.82
818.382	3698.72
818.42	3301.72
818.458	3087.62
818.497	3231.92
818.535	3519.22
818.573	3907.72
818.611	4427.52
818.649	4887.32
818.688	5239.82
818.726	5468.12
818.764	5441.72
818.802	5207.62
818.84	4788.72
818.879	4222.92
818.917	3630.42
818.955	3457.22
818.993	2844.12
819.031	2661.82
819.069	2679.12
819.107	2831.92
819.145	3115.72
819.183	3530.12
819.222	3896.02
819.26	4275.02
819.298	4453.32
819.336	4400.42
819.374	4305.32
819.412	4005.52
819.45	3669.62
819.488	3255.52
819.526	2826.32
819.564	2536.12
819.602	2344.82
819.64	2286.52
819.678	2412.22
819.715	2570.42
819.753	2927.32
819.791	3275.92
819.829	3536.52
819.867	3710.52
819.905	3828.72
819.943	3786.72
819.981	3550.52
820.019	3234.92
820.056	2916.72
820.094	2593.82
820.132	2306.82
820.17	2150.42
820.208	2064.02
820.246	2071.62
820.283	2269.82
820.321	2409.02
820.359	2702.12
820.397	2946.82
820.434	3071.72
820.472	3215.02
820.51	3215.12
820.548	3066.62
820.585	2892.92
820.623	2687.52
820.661	2338.82
820.698	2129.22
820.736	1940.92
820.774	1818.62
820.811	1751.22
820.849	1821.12
820.887	1950.52
820.924	2111.72
820.962	2287.52
820.999	2435.32
821.037	2553.82
821.075	2593.12
821.112	2544.92
821.15	2435.72
821.187	2255.82
821.225	2105.62
821.262	1885.62
821.3	1703.92
821.337	1642.62
821.375	1516.82
821.412	1502.52
821.45	1556.32
821.487	1607.22
821.525	1781.52
821.562	1870.72
821.6	1927.12
821.637	2028.92
821.675	1990.72
821.712	1975.42
821.749	1840.12
821.787	1725.32
821.824	1603.02
821.862	1433.52
821.899	1406.72
821.936	1299.52
821.974	1280.12
822.011	1311.22
822.048	1356.12
822.086	1432.72
822.123	1507.32
822.16	1550.12
822.197	1594.32
822.235	1654.82
822.272	1623.32
822.309	1572.82
822.346	1471.82
822.384	1450.52
822.421	1362.12
822.458	1286.62
822.495	1272.52
822.533	1226.72
822.57	1213.92
822.607	1215.72
822.644	1249.82
822.681	1296.12
822.718	1321.32
822.756	1382.52
822.793	1377.12
822.83	1382.82
822.867	1331.92
822.904	1388.72
822.941	1333.72
822.978	1273.92
823.015	1209.32
823.052	1194.72
823.089	1177.72
823.126	1151.92
823.163	1151.62
823.2	1162.32
823.237	1147.82
823.274	1168.82
823.311	1192.92
823.348	1132.02
823.385	1165.62
823.422	1163.42
823.459	1178.92
823.496	1173.02
823.533	1074.62
823.57	1115.82
823.607	1095.92
823.644	1066.62
823.681	1067.32
823.718	1052.62
823.754	1051.22
823.791	1043.52
823.828	1017.72
823.865	1048.62
823.902	1079.42
823.939	1031.22
823.975	1062.82
824.012	988.92
824.049	1016.02
824.086	1016.42
824.123	1028.02
824.159	1015.12
824.196	1040.82
824.233	1014.52
824.27	1008.52
824.306	987.42
824.343	992.12
824.38	1030.92
824.416	1005.82
824.453	971.42
824.49	961.82
824.526	961.52
824.563	952.52
